##TITLE=3-Iodobenzylamine, 96%
##JCAMP-DX=5.00 $$ ACD/DocManager Library v 8.12
##SPECTROMETER/DATA SYSTEM=TravelIR
##DATE=07 Jan 2003 02:03:14
##DATA TYPE=INFRARED SPECTRUM
##DATA CLASS=XYDATA
##ORIGIN=
##OWNER=
##NPOINTS=1738
##FIRSTX=650.09326172
##LASTX=4000.87011719
##MAXX=4000.87011719
##MINX=650.09326172
##MAXY=0.56253648
##MINY=0.00664278
##XFACTOR=1.0000000000
##YFACTOR=1.000000000000000e-9
##FIRSTY=0.24593061
##DELTAX=1.92905974
##XUNITS=1/CM
##YUNITS=ABSORBANCE
##XYDATA=(X++(Y..Y))
  650.0933      245930612      312265366      360953361      302489370
  657.8096      210142091      167785659      165591598      175168931
  665.5259      186199099      196736947      199348778      202887654
  673.2422      216410562      236755401      265159070      302819163
  680.9585      339643389      363049358      367219269      356644154
  688.6748      342504442      328560412      308879465      279352069
  696.3911      241823345      204004228      173642218      153943479
  704.1074      142787218      137364373      134931654      134417608
  711.8237      135309234      136732444      139177024      142311975
  719.54      146307185      150330499      154731899      159797207      165223926
  729.1854      171217129      177486956      184367910      191763669
  736.9017      200143099      209287733      219159737      230189487
  744.618      242737159      257167310      273355037      292132646      313742757
  754.2634      338988900      368759036      404606730      445652217
  761.9797      488359660      527614057      554070473      562536478
  769.696      554542422      534516931      507068217      475077122      439854950
  779.3414      403224856      367056400      334394723      306901783
  787.0577      286204636      272457689      264168024      260022610
  794.774      258065373      257054150      256516963      255620152      253625959
  804.4194      250889897      248486713      246112004      242715046
  812.1357      237057760      227733046      214843139      200464875
  819.8521      187490702      178329974      173754036      172494471
  827.5684      173538476      176020116      179182902      182805195
  835.2847      186565295      189912811      192520365      194669083
  843.001      196338743      197342440      197907001      197940275      197707161
  852.6464      197193280      196514860      195963100      195504472
  860.3627      195315033      195476100      195993200      196942434
  868.079      198223338      199610308      201181576      202527776      203397140
  877.7244      203844547      203511581      202131182      199869886
  885.4407      196759224      192364857      186863452      180652440
  893.157      173357055      165356174      157503217      150299311      144076198
  902.8024      138868511      134327501      129910558      125233129
  910.5187      120319776      115552858      110960856      106213622
  918.235      101231791       96173726       91349639       86785614       82579143
  927.8804       78814454       75255640       71938790       68955421
  935.5967       66287085       63975468       61910585       59972133
  943.313       58361676       57177704       56292519       55655465       55297181
  952.9584       55238474       55434246       55843562       56585435
  960.6747       57654366       59157293       61046559       63104056
  968.391       65275632       67319900       68864971       70136383       71676865
  978.0364       73817872       76561674       79349779       82335234
  985.7527       86596601       93675695      105420515      124210022
  993.469      145656690      150898501      132871091      107651845       86702317
 1003.1144       72123237       62940404       57160724       53363048
 1010.8307       50725367       48777580       47509186       47030941
 1018.547       47226742       47992662       49314376       51061843       53100444
 1028.1924       55344626       57714615       60260311       62933072
 1035.9087       65787353       69016531       72625987       76301321
 1043.625       79632320       82233332       84093183       85825577       88615716
 1053.2704       93664803      101789616      112498075      122912355
 1060.9867      128041908      123883829      112233281       98578893
 1068.703       85659735       73959276       64268656       56983210       51645119
 1078.3484       47918860       45706172       44814557       45035817
 1086.0647       45796327       46088092       45049462       42903218
 1093.781       40606674       38578987       36881167       35476629       34137208
 1103.4264       32912672       31824999       30804491       29933415
 1111.1427       29315652       28995954       28801335       28619180
 1118.859       28588351       28650362       28720107       28824994       29054729
 1128.5044       29352613       29713739       30213915       30910313
 1136.2207       31733584       32563865       33546180       34791589
 1143.937       36151767       37525348       39033733       40615000       42053852
 1153.5824       43386243       44733714       46251781       48371844
 1161.2987       51364362       55196684       59215955       61801199
 1169.015       61245352       58085229       55133201       54291345       55376783
 1178.6604       57811812       61233390       65349340       70115976
 1186.3767       75474322       81264101       87029055       91687255
 1194.093       93935482       93044929       89217119       83483048       77088311
 1203.7384       70784263       64595900       58361374       52241724
 1211.4547       46608411       41856106       38096800       35211064
 1219.171       33068262       31414542       30133422       29207889       28684776
 1228.8164       28501788       28490717       28638560       29060243
 1236.5327       29685035       30433660       31456482       32801893
 1244.249       34360271       36104351       37859056       39319083       40357023
 1253.8944       40905911       41018575       40920146       40817562
 1261.6107       40711388       40420152       39888721       39296769
 1269.327       38727049       38159143       37537623       36885686       36276825
 1278.9724       35825424       35555657       35554644       35930578
 1286.6887       36749728       37944388       39480928       41200634
 1294.405       42706933       43701921       44027444       43465987       41871291
 1304.0504       39789226       37965313       36657963       35837151
 1311.7667       35462353       35385095       35614122       36280993
 1319.483       37305199       38569730       40233538       42284980       44762712
 1329.1284       47955077       52119270       56821473       60876623
 1336.8447       62996075       62391352       59406083       55568315
 1344.561       52160498       49736578       48223499       47423560       47133714
 1354.2064       47222916       47774892       48810150       50458096
 1361.9227       52896641       55765834       58679730       62286485
 1369.639       66364534       69891684       72842151       74654758       74712329
 1379.2844       73319063       70750028       67509584       64259686
 1387.0007       61588697       59446558       58010038       57711687
 1394.717       58590095       59591252       61173204       63257784       65135479
 1404.3624       67931741       71184002       74697413       79639070
 1412.0787       86961173       98112568      115816809      138175547
 1419.795      158356071      151470631      118491553       86988427       70746459
 1429.4404       62882103       60540196       60375817       61461080
 1437.1567       61993811       60999040       60975630       62721647
 1444.873       65341130       68523303       71181685       72256856       72324954
 1454.5184       72134010       74149594       78251578       83515845
 1462.2347       91868721      102437586      111587375      113393471
 1469.951      108977057      100573666       88919833       75536415       61210200
 1479.5964       50372887       42741016       37510540       34276556
 1487.3127       32130688       30575309       28857395       27402734
 1495.0291       26919253       26580920       25785264       25454359
 1502.7454       25556833       26449228       27556917       27033985
 1510.4617       26625553       27078457       27555980       28530287
 1518.178       29252447       30206509       31548791       31795174       32670941
 1527.8234       33940632       35038065       36586288       38956672
 1535.5397       40490326       42119980       46530064       50926998
 1543.256       54325145       59343632       65031759       72350293       81642933
 1552.9014       90762839      104744494      120053105      146092117
 1560.6177      185965180      196601123      173955098      136628151
 1568.334      108329624       90375230       82831658       80868922       82349792
 1577.9794       82903907       84050231       88715263       96782953
 1585.6957      108303100      119305797      122389667      114313439
 1593.412       99305823       84104903       73142506       66551857       62636733
 1603.0574       60026787       57859503       55710327       53547051
 1610.7737       51641759       49832817       48264984       46868190
 1618.49       45126069       43483198       42164844       40580261       38942274
 1628.1354       37502471       36113985       35018303       34431245
 1635.8517       34023404       33017676       32284431       31741615
 1643.568       30814756       29821716       28597267       27076608       26298082
 1653.2134       25833419       24280606       23231672       22787524
 1660.9297       22415485       22193613       21814438       21484327
 1668.646       21489894       21373408       20963583       20846209       20575877
 1678.2914       20107383       19981561       19764900       19675590
 1686.0077       19122928       18342780       17965758       17491039
 1693.724       17004568       16969172       16598886       16480966       16241753
 1703.3694       15380671       15155333       14981920       14724649
 1711.0857       14662659       14655946       14743903       14942029
 1718.802       14869274       14377759       14192560       14269990       14290888
 1728.4474       14437011       14548535       14672144       15299958
 1736.1637       15151134       14804475       15117409       15224094
 1743.88       15284573       15427713       15611743       15758077       15918208
 1753.5254       15766190       15655085       15839413       15754487
 1761.2417       15834607       15900854       15566305       15614431
 1768.958       15782941       15728343       15848529       15652359       15395380
 1778.6034       15336547       15385018       15271690       15176591
 1786.3197       15302349       15357503       15475381       15800849
 1794.036       15946271       15921488       15971554       16073942       16215822
 1803.6814       16177570       16059510       15951360       15798466
 1811.3977       15750812       15641624       15436962       15265477
 1819.114       15080061       14984040       14942350       14917195       14751761
 1828.7594       14617332       14683015       14563267       14466225
 1836.4757       14526807       14571754       14545048       14594963
 1844.192       15077373       15341059       15272010       15401273       15689237
 1853.8374       16072985       16432416       16730528       16993906
 1861.5537       17235512       17525546       17697845       17951153
 1869.27       18271536       18124096       17781328       17634934       17440576
 1878.9154       17138513       16985092       16775135       16379844
 1886.6317       15893525       15643599       15517865       15211027
 1894.348       14906633       14642606       14395510       14264139       14149304
 1903.9934       14052575       14021803       13853554       13810697
 1911.7097       14072347       14185999       14135879       14362762
 1919.426       14700745       14765779       14999472       15266648       15448892
 1929.0714       15939582       16505029       16841669       17262900
 1936.7877       17642697       17635936       17745061       17786358
 1944.504       17519727       17293062       16955478       16353602       15854985
 1954.1494       15721023       15798232       15379854       14822605
 1961.8657       14759983       14757968       14550944       14502021
 1969.582       14287516       13954139       14196950       14374715       14202191
 1979.2274       14030484       13867998       13757773       13788716
 1986.9437       14085954       14325405       14433371       14402444
 1994.66       14048801       14014094       13974744       13704381       13785645
 2004.3054       13766382       13426862       13336857       13615759
 2012.0217       13629829       13153158       13079455       13174159
 2019.738       13068325       13201966       13557338       13629557       13426890
 2029.3834       13061136       12922700       12736703       12784272
 2037.0997       12991168       12905235       13145251       12933624
 2044.816       12713043       12798955       12643804       12715960       12803122
 2054.4609       12736377       12535602       12206749       12373895
 2062.1768       12786315       12885230       12691781       12578352
 2069.8926       12304706       12033896       12113133       12295282
 2077.6084       12365361       12337149       12374466       12406446
 2085.3242       12520939       12733583       12771224       12577994
 2093.04       12506085       12486924       12462491       12528767       12605871
 2102.6848       12640433       12566167       12567454       12688898
 2110.4006       12753932       12690453       12596983       12599441
 2118.1165       12660199       12852502       13096918       13211137
 2125.8323       13062582       12929687       12869346       13110186
 2133.5481       13352841       13262603       13145217       13159066
 2141.2639       13564060       13625870       13236926       13368472
 2148.9797       13776058       13556930       13413410       13696671
 2156.6956       13671624       13572209       13467688       13281710
 2164.4114       13154231       12814130       12833509       13138671
 2172.1272       13334515       13302117       12978248       12979886
 2179.843       13295460       13122568       13017175       13108241       13109813
 2189.4878       13072099       12894236       12947530       12906400
 2197.2036       12556390       12758593       13219684       13091224
 2204.9194       12936852       12920349       12876950       12854241
 2212.6353       12769951       12730341       12810077       12678467
 2220.3511       12680019       12796187       12770450       12685904
 2228.0669       12680217       12974357       13132675       12949844
 2235.7827       12815627       12812856       12729032       12653008
 2243.4985       12769348       12778085       12755497       12742507
 2251.2144       12761544       12944979       12886452       12767147
 2258.9302       12888557       12788324       12529698       12546099
 2266.646       12655534       12600354       12328529       12188460       12412423
 2276.2908       12544588       12298366       12347834       12414918
 2284.0066       12275954       12311030       12316718       12260229
 2291.7224       12195871       12236815       12274888       12087948
 2299.4382       12014186       12192757       12337573       12283362
 2307.1541       12217570       12139126       12036301       12139584
 2314.8699       12210739       12174586       12198336       12302175
 2322.5857       12323963       12312387       12352060       12480292
 2330.3015       12567805       12658889       12747766       12699383
 2338.0173       12679612       12751613       12901172       12979093
 2345.7332       13056252       12941162       12522591       12442447
 2353.449       12712065       12784688       12766497       12741522       12826004
 2363.0938       12979840       12920093       12926543       12992341
 2370.8096       12976900       13105749       13106322       12927320
 2378.5254       12795775       12918455       12961978       12803908
 2386.2412       12781287       12862554       12864505       12793410
 2393.957       12622921       12579422       12662443       12655129       12608541
 2403.6018       12489165       12390067       12374513       12414982
 2411.3176       12462119       12432690       12394143       12395067
 2419.0334       12358236       12303100       12198756       12183618
 2426.7493       12298578       12418838       12339407       12166112
 2434.4651       12120467       12312122       12507363       12423346
 2442.1809       12313147       12305995       12381217       12500308
 2449.8967       12584082       12579842       12543211       12576057
 2457.6125       12660178       12732513       12652275       12632235
 2465.3284       12703733       12707571       12663078       12604477
 2473.0442       12621115       12513002       12426283       12440261
 2480.76       12575558       12778737       12862282       12850419       12845686
 2490.4048       12841511       12827996       12851728       12807029
 2498.1206       12731545       12757334       12805969       12820392
 2505.8364       12876544       12880906       12753388       12561683
 2513.5522       12506285       12696018       12808099       12838780
 2521.2681       12898468       12830754       12720181       12683505
 2528.9839       12586500       12645119       12795879       12699042
 2536.6997       12703630       12734265       12636429       12668060
 2544.4155       12807992       12742847       12698579       12751633
 2552.1313       12826514       12927689       12890719       12797171
 2559.8472       12829764       12847082       12731946       12597707
 2567.563       12534718       12557670       12637483       12672410       12669198
 2577.2078       12838062       13097140       13251538       13238670
 2584.9236       13197646       13112024       12974733       12913908
 2592.6394       12948366       12945911       12960233       13026470
 2600.3552       13140727       13234299       13323463       13332462
 2608.071       13364613       13492121       13579495       13616106       13646235
 2617.7158       13684102       13615895       13688608       13791448
 2625.4316       13655558       13574910       13638280       13608092
 2633.1475       13508955       13446848       13490487       13570214
 2640.8633       13589470       13536301       13562798       13638165
 2648.5791       13599149       13555842       13603565       13655966
 2656.2949       13676089       13617185       13620257       13699461
 2664.0107       13670444       13620736       13611968       13613160
 2671.7266       13528417       13435517       13463124       13460952
 2679.4424       13467178       13457495       13389478       13447949
 2687.1582       13480261       13515448       13607284       13621185
 2694.874       13542824       13507168       13572781       13694551       13854217
 2704.5188       13983500       14082630       14186929       14288544
 2712.2346       14471354       14714692       14828857       14862113
 2719.9504       14991818       15129444       15233156       15395445
 2727.6663       15591468       15753115       15904756       16144386
 2735.3821       16398210       16475312       16559942       16746363
 2743.0979       16855335       16978089       17049480       17141052
 2750.8137       17212471       17188745       17271593       17360497
 2758.5295       17298898       17325478       17436942       17468788
 2766.2454       17545056       17693339       17769646       17879013
 2773.9612       18037606       18094806       18270750       18511202
 2781.677       18646488       18888317       19147152       19324515       19578896
 2791.3218       19879505       20173660       20426091       20691540
 2799.0376       21008780       21433529       21924172       22518115
 2806.7534       23238786       24029886       24838781       25725281
 2814.4692       26650535       27556449       28623482       29709158
 2822.1851       30690888       31765636       32990359       34182895
 2829.9009       35273418       36315080       37252557       38113032
 2837.6167       38865611       39558180       40348403       41220590
 2845.3325       42184483       43025214       43582290       43984748
 2853.0483       44202954       44035323       43533597       42788234
 2860.7642       41867517       40690925       39395742       38152918
 2868.48       36943056       35874084       34984514       34301832       33817384
 2878.1248       33493910       33357073       33280089       33256270
 2885.8406       33458371       33633754       33728823       33998497
 2893.5564       34367107       34808066       35245787       35623509
 2901.2722       36156707       36668919       37055805       37366897
 2908.988       37484869       37419569       37260268       36821764       36268130
 2918.6328       35827201       35252076       34523841       33790670
 2926.3486       33024386       32160774       31101221       30028895
 2934.0645       29028520       27992597       26948037       25893917
 2941.7803       24817562       23622837       22486530       21444896
 2949.4961       20449471       19527784       18807326       18262954
 2957.2119       17700046       17286405       17034657       16602369
 2964.9277       16045623       15739596       15834985       16000243
 2972.6436       16061869       15979825       15887503       15892137
 2980.3594       15848419       15890861       16033979       16203854
 2988.0752       16443960       16700447       17096939       17651012
 2995.791       18177960       18693119       19045711       19327303       19665236
 3005.4358       19787850       19637616       19359829       19094137
 3013.1516       19038297       19166570       19382730       19739894
 3020.8674       20248462       20774325       21334715       21889756
 3028.5833       22317726       22730166       23166131       23554640
 3036.2991       24151672       24998778       25892224       26723145
 3044.0149       27586585       28521258       29368173       29876761
 3051.7307       29684927       28948175       27901098       26618594
 3059.4465       25257174       24107158       23159856       22348000
 3067.1624       21725014       21241970       20830212       20389222
 3074.8782       19731313       18903522       18068485       17289123
 3082.594       16769702       16382027       15854275       15653366       15605404
 3092.2388       15349258       15280684       15199696       15028313
 3099.9546       14917447       14839888       14865558       14886512
 3107.6704       14898186       14994559       14978073       14927126
 3115.3862       15031540       15214354       15325771       15410502
 3123.1021       15565513       15712149       15760751       15754636
 3130.8179       15772898       15914274       16027823       16079884
 3138.5337       16176971       16364984       16637303       16828818
 3146.2495       17012944       17276309       17500497       17651634
 3153.9653       17650116       17717760       17997663       18266162
 3161.6812       18556837       18698817       18809773       19034056
 3169.397       19125344       19189017       19354159       19468503       19659627
 3179.0417       19813731       19878540       19875383       19836934
 3186.7576       19890374       19895753       19901494       19901766
 3194.4734       19852640       19837512       19807739       19908739
 3202.1892       20017989       19994583       20039178       20070802
 3209.905       20000843       19976292       20038620       20070838       20146532
 3219.5498       20186178       20389022       20560324       20483568
 3227.2656       20546351       20715643       20798560       20950036
 3234.9814       21105336       21373551       21805219       21966854
 3242.6973       22046238       22336895       22570584       22803672
 3250.4131       23199901       23566583       23808189       24051465
 3258.1289       24437945       24830429       25151707       25387643
 3265.8447       25557153       25845567       26213365       26382565
 3273.5605       26533147       26661724       26632208       26718576
 3281.2764       26784608       26653947       26608892       26699750
 3288.9922       26747221       26620509       26448337       26258722
 3296.708       26152058       26052166       25857449       25607517       25290225
 3306.3528       25066894       24784304       24417669       24159059
 3314.0686       23955889       23664432       23416411       23216693
 3321.7844       22937203       22541234       22168884       22011906
 3329.5002       21955008       21972375       22156786       22368355
 3337.2161       22720693       23102412       23526074       24013562
 3344.9319       24520138       25231374       26074277       26833724
 3352.6477       27549893       28249158       28851856       29615756
 3360.3635       30395992       30928014       31342920       31729572
 3368.0793       31947654       31898178       31597033       31212013
 3375.7952       30548438       29527836       28631547       27727831
 3383.511       26576011       25409387       24198137       22920504       21684982
 3393.1558       20593030       19482927       18368656       17431105
 3400.8716       16667362       15997458       15301678       14602427
 3408.5874       14141816       13839568       13525456       13227393
 3416.3032       13024940       12816837       12478224       12238454
 3424.019       12014708       11836180       11707705       11733594       11672850
 3433.6638       11476173       11352378       11195751       11108705
 3441.3796       11037782       10942048       10863120       10809926
 3449.0955       10678004       10482624       10421437       10406682
 3456.8113       10411742       10374602       10305051       10328531
 3464.5271       10335149       10150985        9939188        9872898
 3472.2429        9814207        9790868        9728321        9575743
 3479.9587        9556274        9669922        9600230        9465431
 3487.6746        9379117        9321594        9281967        9263045
 3495.3904        9265509        9331885        9281899        9070432
 3503.1062        9001257        8954055        8860531        8903208
 3510.822        8969651        8959898        8868732        8771285        8694850
 3520.4668        8662350        8682181        8708640        8727201
 3528.1826        8590627        8494849        8513185        8565658
 3535.8984        8582718        8497566        8444791        8571367
 3543.6143        8620121        8465587        8336004        8260816
 3551.3301        8267831        8303906        8157387        8101576
 3559.0459        8140864        8142702        7996128        7911725
 3566.7617        8266587        8411190        8121410        8002501
 3574.4775        7957801        7840051        7886786        7839964
 3582.1934        7768273        7856609        8050173        8330875
 3589.9092        8216905        7975604        8025332        7908994
 3597.625        7792637        7902958        8021911        8046383        7916034
 3607.2698        7810925        8087854        8066393        7906550
 3614.9856        8004295        7914074        7948940        8143432
 3622.7014        8192808        8096164        7896355        8367733
 3630.4172        8924685        8466409        8257916        8368335
 3638.1331        8502416        8537773        8530017        8352241
 3645.8489        8071049        8282435        8731575        8736170
 3653.5647        8293289        8245592        8546246        8329361
 3661.2805        8061752        8021672        8012650        7828009
 3668.9963        7543784        7744907        7673257        7777163
 3676.7122        8139295        7735784        7631784        7733345
 3684.428        7519821        7360561        7498298        7600926        7537771
 3694.0728        7525389        7610615        7626178        7543926
 3701.7886        7677997        7416920        7090446        7229651
 3709.5044        7420584        7694843        7769909        7338830
 3717.2202        7207185        7236197        7191292        7311320
 3724.936        7248347        7388954        7279643        7006688        7193163
 3734.5808        7283325        7459434        7395707        7034236
 3742.2966        6716308        7156946        7437787        6906275
 3750.0125        7258005        7593900        7221185        6784229
 3757.7283        6748691        7036006        7033968        6777541
 3765.4441        6974586        7120564        7033732        7147432
 3773.1599        7098238        7179210        7158364        7120799
 3780.8757        7273642        7068081        6935879        7084914
 3788.5916        7105168        6891055        6808599        6972888
 3796.3074        7064278        6878712        6848751        7474633
 3804.0232        7214059        7009339        7532326        7273069
 3811.739        6833754        6642777        7071649        7525692        7169743
 3821.3838        7376283        7421232        7128961        7254524
 3829.0996        7182823        7096643        7235092        7192951
 3836.8154        7304302        7627059        7490817        7304424
 3844.5313        7336606        7332162        7147254        6850623
 3852.2471        7076227        7853146        7642611        7093113
 3859.9629        7023364        7097078        7148262        7339079
 3867.6787        7209500        7335669        7547414        7393045
 3875.3945        7447724        7239160        7128567        7236560
 3883.1104        6974795        7019281        7272463        7061906
 3890.8262        7225878        7423964        7082899        6826267
 3898.542        6966888        7272635        7347943        7429530        7425250
 3908.1868        7073469        6891552        7002072        7009408
 3915.9026        6991909        7151315        7238782        7271441
 3923.6184        7075808        7011559        7196095        7059475
 3931.3342        6915168        6947463        6947520        6950999
 3939.05        6861303        6800468        7016240        7189487        7218204
 3948.6948        7239037        7118565        7027987        7044743
 3956.4106        6990525        7024150        7125785        7220177
 3964.1265        7139162        6951918        6781401        6838474
 3971.8423        6992795        7083226        7080629        7043134
 3979.5581        7157947        7222784        7062236        6957921
 3987.2739        7027512        7033534        7023562        7048592
 3994.9897        7168307        7165084        7061413        7176520
##END=$$ End of the data block
