##TITLE=2,3,5,6-Tetrafluorobenzenethiol, 97%
##JCAMP-DX=5.00 $$ ACD/DocManager Library v 8.12
##SPECTROMETER/DATA SYSTEM=TravelIR
##DATE=07 Jan 2003 02:25:00
##DATA TYPE=INFRARED SPECTRUM
##DATA CLASS=XYDATA
##ORIGIN=
##OWNER=
##NPOINTS=1738
##FIRSTX=650.09326172
##LASTX=4000.87011719
##MAXX=4000.87011719
##MINX=650.09326172
##MAXY=0.67904741
##MINY=-0.00012520
##XFACTOR=1.0000000000
##YFACTOR=1.000000000000000e-9
##FIRSTY=0.01614867
##DELTAX=1.92905974
##XUNITS=1/CM
##YUNITS=ABSORBANCE
##XYDATA=(X++(Y..Y))
  650.0933       16148668       17055875       20064827       24001744
  657.8096       27514543       32430813       35264868       33308994
  665.5259       31274192       30439133       28685503       27236199
  673.2422       25423054       23708325       22891751       22856634
  680.9585       24033453       26018459       28921526       32257777
  688.6748       36153171       43070592       56491062       78749634
  696.3911      115339488      170814171      191123322      145859107
  704.1074      113239110      136963263      225861192      382822633
  711.8237      418999910      237756565      105175734       59099048
  719.54       43699138       37417036       33995319       30723192       26870549
  729.1854       22837745       19753028       17965674       17564844
  736.9017       17622406       16544880       14886463       13664621
  744.618       12593289       11984184       11522910       10970844       10778082
  754.2634       10801873       10550068       10360179       10370694
  761.9797       10393838       10581513       10808215       10974358
  769.696       11260996       11589486       11660564       11577991       11788776
  779.3414       12254870       12708496       13342454       14133030
  787.0577       14972654       15832804       16898369       18427432
  794.774       20063890       21639599       23609038       26028449       28925708
  804.4194       32475743       36900215       42350423       48743248
  812.1357       57009984       68111502       82689010      102502458
  819.8521      128643304      161049232      199087858      241751179
  827.5684      287648559      330252916      357506454      360031664
  835.2847      338334501      302859336      267235607      238087654
  843.001      212471947      190715596      178422257      177934662      189080313
  852.6464      212060854      247888207      297950864      363709390
  860.3627      441181690      508368194      524593949      472436517
  868.079      384852499      299828798      234124988      188618705      158386663
  877.7244      138367981      125216350      117147654      113714151
  885.4407      113061763      111440986      110191658      118351460
  893.157      148663118      214239910      305676192      351062149      289099634
  902.8024      187148198      116260596       82085319       67486651
  910.5187       60897049       58181394       59728634       69691733
  918.235       80190517       81052989       71383558       51099658       35918925
  927.8804       32190379       31924386       33081472       34614276
  935.5967       35650682       34833238       32398697       29770551
  943.313       27509317       25691440       24444675       23697874       23199134
  952.9584       22669302       22008004       21506965       21410063
  960.6747       21634271       22148361       22910150       23999128
  968.391       25612013       27713077       30375915       33815753       38291845
  978.0364       43973032       51223949       60535129       72622374
  985.7527       88839963      111163966      140092403      172701955
  993.469      202110887      218676537      214322403      187637389      147503853
 1003.1144      108151108       78950278       61526697       51362157
 1010.8307       43401834       37405469       33972222       30834623
 1018.547       26556233       22435045       19205078       16577303       14599418
 1028.1924       13164554       12116400       11247351       10429369
 1035.9087        9850400        9511124        9234945        8967602
 1043.625        8784222        8791540        8906007        8968748        9043057
 1053.2704        9291619        9748918       10343871       11352595
 1060.9867       12542598       13161538       12737282       11821152
 1068.703       11373395       11226348       10835194       10257934        9795409
 1078.3484        9509567        9255424        9196094        9516304
 1086.0647       10419564       11934560       12723068       12181853
 1093.781       11529652       11333228       11363220       11573530       12082266
 1103.4264       13015110       14438562       15958052       16960869
 1111.1427       17703727       18714018       20213004       22192936
 1118.859       25166439       30374616       40143542       58693048       84199540
 1128.5044       98443061       86529084       61495248       42060159
 1136.2207       32363832       28892748       28412007       30265519
 1143.937       32970332       32960661       31752899       33078793       36941808
 1153.5824       42022932       46698049       51471721       59364468
 1161.2987       74457504      104097463      158372059      241731852
 1169.015      324698269      333623767      258605748      176102057      127402604
 1178.6604      104133643       88323265       75688764       67753762
 1186.3767       62530957       55908550       45857001       35869069
 1194.093       29518012       26733859       26454544       27894890       30195864
 1203.7384       31786960       32027736       32622132       35200760
 1211.4547       39753899       44964045       50537527       58770083
 1219.171       71714833       84389731       88271864       87145440       89117877
 1228.8164       94493784      105189174      123603553      141630337
 1236.5327      160141975      195075661      221235991      190120772
 1244.249      127247289       80330491       56394387       45025878       38672220
 1253.8944       34086134       30242488       26800642       23837449
 1261.6107       21339100       19295424       17618626       16260635
 1269.327       15244215       14439682       13525867       12403309       11364710
 1278.9724       10511971        9833772        9279322        8763011
 1286.6887        8277752        7843604        7535215        7355898
 1294.405        7317014        7305482        7233316        7230233        7272218
 1304.0504        7368138        7596003        7978706        8357234
 1311.7667        8317898        7868959        7604279        7605094
 1319.483        7666656        7694777        7666599        7707980        7982178
 1329.1284        8348783        8313362        7867044        7627592
 1336.8447        7798387        8250891        8825139        9510815
 1344.561       10444192       11602835       13361511       16666410       22440473
 1354.2064       29298369       31243430       25571330       18561084
 1361.9227       15048769       14232641       14477505       15280423
 1369.639       16515987       18372679       21406259       25380639       27740963
 1379.2844       28177233       30908160       37246663       41673191
 1387.0007       38203031       28252885       20239940       17180327
 1394.717       17123928       17939232       19241529       20043794       19863741
 1404.3624       20031210       20986894       22997648       25365544
 1412.0787       27004443       28247982       30673049       35652380
 1419.795       44172812       54170523       67200862       79110131       87559529
 1429.4404      101796441      121412918      141147330      163203120
 1437.1567      219703525      312397063      361548603      276303977
 1444.873      150532648       84493935       62417742       55287533       52537471
 1454.5184       51921550       53853117       51462267       49701001
 1462.2347       54093059       64735241       77999622       92094354
 1469.951      111421518      141819641      182654664      227058664      289683700
 1479.5964      366911799      462239742      563525200      636538804
 1487.3127      674512267      679047406      675062358      662064075
 1495.0291      635285914      617996097      604909420      545114517
 1502.7454      454258561      367195368      290290624      237581968
 1510.4617      198530659      153835148      114512622       85032679
 1518.178       63565031       52391328       43620702       36606152       32112814
 1527.8234       27914798       24532059       22608576       20691879
 1535.5397       18219117       17534392       17503383       15747782
 1543.256       14215776       13225449       12677673       12756585       12820081
 1552.9014       12847336       12655985       12634131       12602205
 1560.6177       10863399       10212248       10755882       11548279
 1568.334       12797671       14176639       15402087       17252447       19459246
 1577.9794       20829787       21699974       22416787       22989811
 1585.6957       23279162       22925528       21980129       21011975
 1593.412       20260021       19845905       19653458       19684464       20003431
 1603.0574       20775381       22049142       23832137       25996411
 1610.7737       28499860       31246793       34767643       40636953
 1618.49       48235435       56317095       64988121       70129447       69786921
 1628.1354       70277214       81336401      107509762      135684714
 1635.8517      139552072      104571827       64172029       39394047
 1643.568       29366588       24501359       21020867       17569870       16466442
 1653.2134       15293468       11990149       10094102        9581424
 1660.9297        9616894        9939448       10130609       10429525
 1668.646       10700198       10640519       10585230       10702896       10674861
 1678.2914       10743071       11328049       12058428       12582275
 1686.0077       12393002       11699517       10499453        8991433
 1693.724        7796385        7102269        6634519        6416915        5765800
 1703.3694        5115474        4814737        4432295        4089451
 1711.0857        3922065        3969380        4023689        3976788
 1718.802        3746741        3566040        3568920        3530197        3428011
 1728.4474        3398421        3374469        3413035        3428346
 1736.1637        3117020        2971111        2955889        2929134
 1743.88        2978623        2999899        3107519        3235548        3444799
 1753.5254        3577939        3578822        3339458        3116097
 1761.2417        3132088        3022217        2843052        2801134
 1768.958        2705700        2634809        2608839        2423004        2336285
 1778.6034        2305760        2406659        2523688        2468753
 1786.3197        2380397        2366028        2410401        2606543
 1794.036        2657103        2567183        2647374        2772474        2716421
 1803.6814        2667313        2667347        2541457        2456581
 1811.3977        2496614        2633428        2743769        2783307
 1819.114        2767071        2757718        2777251        2865599        2948191
 1828.7594        3066573        3240881        3529154        4320828
 1836.4757        5582884        6834052        7269849        6500969
 1844.192        4994172        3654338        2986139        2617326        2474502
 1853.8374        2512740        2504536        2398673        2373368
 1861.5537        2300075        2139342        2195986        2378240
 1869.27        2422295        2360377        2379890        2390659        2344076
 1878.9154        2340889        2469738        2585488        2642581
 1886.6317        2523247        2458830        2560946        2562550
 1894.348        2552859        2465019        2292182        2098969        2013964
 1903.9934        2146154        2042840        1926746        2166766
 1911.7097        2296085        2294498        2264161        2070134
 1919.426        1928670        2056578        2256880        2214717        2094967
 1929.0714        1892607        1567054        1638541        1985484
 1936.7877        2092956        2019220        2118584        2223819
 1944.504        2161021        2098279        2183950        2372667        2673827
 1954.1494        2746537        2116501        1526031        1921887
 1961.8657        1992201        1730144        1883042        1993051
 1969.582        2099794        1915460        1530232        1702500        2298046
 1979.2274        2322077        1938532        1791600        2368612
 1986.9437        3093916        3633104        3714659        3802738
 1994.66        4087322        4227291        4132153        3782986        3868954
 2004.3054        4124159        3951345        3837594        4118194
 2012.0217        4015596        3818071        3611432        3275760
 2019.738        3464921        3246448        2848188        2855118        2867971
 2029.3834        2862689        2690819        2396075        1960437
 2037.0997        1736046        1609834        1471305        1801139
 2044.816        2146786        1811675        1591847        1727880        1775919
 2054.4609        1588890        1368818        1544808        1791896
 2062.1768        1686126        1731459        2011949        2149250
 2069.8926        2075136        1937122        1841594        1862670
 2077.6084        1839898        1692499        1637007        1633693
 2085.3242        1633911        1510236        1438286        1529283
 2093.04        1678617        1720029        1674631        1570181        1533756
 2102.6848        1525203        1625430        1755957        1589594
 2110.4006        1541518        1559723        1625718        1818295
 2118.1165        1927217        2333836        2323837        2003780
 2125.8323        2115201        1987400        1858451        1804236
 2133.5481        1720440        2024156        2067242        2005362
 2141.2639        2382354        2292522        1764005        1414663
 2148.9797        1364664        1538231        1653249        1462588
 2156.6956        1183860         898795         771654         803046
 2164.4114         843863         847620         927963         824706
 2172.1272         649434        1021923        1502837        1310517
 2179.843        1074809        1115148         908388         639738         776381
 2189.4878        1211199        1243587        1227035        1405140
 2197.2036        1420437        1379230        1590306        1853717
 2204.9194        2273155        2520815        2465194        2492417
 2212.6353        2277636        1975447        2024481        2069944
 2220.3511        1880383        1483542        1216425        1344360
 2228.0669        1494928        1447528        1416793        1604023
 2235.7827        1983483        2330399        2350210        2308206
 2243.4985        2640698        3248286        3754772        4090096
 2251.2144        4157502        3726237        3164491        3005579
 2258.9302        2973243        2805297        2618775        2531005
 2266.646        2312630        2124550        2101246        2116004        2075024
 2276.2908        1850805        1792705        2192692        2581657
 2284.0066        2569428        2402913        2304585        2166321
 2291.7224        2044366        2005475        2055816        2233207
 2299.4382        2212245        2010629        1964613        2117548
 2307.1541        2047291        1782443        1787606        1976693
 2314.8699        1905335        1888545        2043685        2043966
 2322.5857        2116836        2141946        2035728        2138398
 2330.3015        2302640        2463362        2670636        3006657
 2338.0173        3690110        4288553        4494196        4511667
 2345.7332        4597003        4642491        4473499        4361118
 2353.449        4324187        4114483        3952147        3732339        3522678
 2363.0938        3537672        3809228        3988474        3962911
 2370.8096        3750398        3439183        3428542        3436534
 2378.5254        3287947        3338177        3503075        3511164
 2386.2412        3351231        3134738        3041907        3077179
 2393.957        3157049        3241793        3226010        3162820        3115139
 2403.6018        2987340        3014426        3051172        2881575
 2411.3176        2694767        2501776        2299201        2181571
 2419.0334        2055146        1876352        1772865        1794270
 2426.7493        1741746        1743840        1811826        1713485
 2434.4651        1680598        1663660        1629242        1624875
 2442.1809        1597930        1711487        1797935        1718755
 2449.8967        1588943        1405589        1362869        1689063
 2457.6125        1938510        1851829        1734716        1524493
 2465.3284        1380280        1410118        1501052        1569291
 2473.0442        1515838        1477885        1551170        1656190
 2480.76        1861726        2006886        1949874        1844493        1955838
 2490.4048        2175473        2140113        1995347        1985225
 2498.1206        2015704        2093033        2311511        2613218
 2505.8364        2913910        2901381        2646294        2505739
 2513.5522        2422225        2304645        2306190        2316711
 2521.2681        2357482        2410389        2416869        2394508
 2528.9839        2425006        2551440        2638855        2750468
 2536.6997        2938181        3130455        3455075        3944130
 2544.4155        4476205        4858129        5157818        5664196
 2552.1313        6304212        6827145        7022100        7102055
 2559.8472        7344579        7776937        8450314        9343663
 2567.563       10127635       10211816        9786882        9574994        9463239
 2577.2078        9708113       10200512       10693161       11347559
 2584.9236       11988145       12690993       13685286       14807793
 2592.6394       15784649       16680961       17493557       17989794
 2600.3552       17943403       17312642       16150376       14797537
 2608.071       13351702       11894789       10604747        9535553        8678354
 2617.7158        7907582        7259212        6799472        6489994
 2625.4316        6210518        5878740        5481156        5002927
 2633.1475        4704705        4518437        4256330        4035591
 2640.8633        3782904        3474562        3291171        3207870
 2648.5791        3182373        3238221        3262868        3245447
 2656.2949        3213279        3114979        2993604        2902570
 2664.0107        2835589        2772515        2691868        2652654
 2671.7266        2511811        2304756        2230411        2163350
 2679.4424        2035023        2080965        2105256        1900583
 2687.1582        1758140        1788829        1846961        1819391
 2694.874        1729121        1666965        1618437        1543014        1526245
 2704.5188        1648084        1699425        1638432        1692754
 2712.2346        1762445        1717851        1696111        1738196
 2719.9504        1655127        1525204        1570842        1716264
 2727.6663        1776419        1775812        1695933        1706298
 2735.3821        1818584        1847430        1894868        1941326
 2743.0979        1933522        1881938        1795948        1785817
 2750.8137        1831651        1879462        1861330        1857257
 2758.5295        1834181        1844338        1980784        1957213
 2766.2454        1855537        1835491        1829270        1879174
 2773.9612        2023996        1959533        1886714        1991590
 2781.677        1985644        1972965        2056144        2093734        2083449
 2791.3218        2088679        2121059        2161285        2200535
 2799.0376        2158796        2167767        2238110        2255622
 2806.7534        2277465        2119193        1956041        1954110
 2814.4692        2010317        2108649        2088750        1931912
 2822.1851        1869951        1823469        1696405        1672181
 2829.9009        1654604        1602088        1581984        1551760
 2837.6167        1615832        1535244        1354460        1343249
 2845.3325        1319434        1169327        1052374        1040219
 2853.0483        1042217        1046686        1129590        1229365
 2860.7642        1311193        1335648        1290280        1337294
 2868.48        1419901        1479284        1501249        1567041        1760094
 2878.1248        1868377        1854541        1919542        2012572
 2885.8406        2123822        2154994        2010198        1802714
 2893.5564        1640849        1580121        1608316        1510629
 2901.2722        1402155        1476661        1539696        1588885
 2908.988        1510321        1403111        1427924        1210785         934594
 2918.6328         888516         766160         529407         382912
 2926.3486         288333         240502         215430         125791
 2934.0645         166779         275033         464265         591409
 2941.7803         413529         244332         296193         311434
 2949.4961         326802         176765        -125204         -56678
 2957.2119         178931         356331         443929         306921
 2964.9277         106381          19552         169802         443453
 2972.6436         742503         905401         808185         730509
 2980.3594         692511         824927        1032970        1127872
 2988.0752        1172921        1085514         923132        1070142
 2995.791        1324503        1357460        1420106        1493757        1421596
 3005.4358        1329376        1322336        1527800        1586774
 3013.1516        1295177        1183873        1277576        1320191
 3020.8674        1335693        1455255        1555241        1477866
 3028.5833        1407664        1457559        1521604        1501854
 3036.2991        1478531        1610189        1774495        1841344
 3044.0149        1766365        1811689        1942589        2086569
 3051.7307        2348435        2557532        2788461        3155576
 3059.4465        3508172        3874495        4458699        5071603
 3067.1624        5710552        6692648        7674876        8674583
 3074.8782        9871703       10949543       12097599       13131360
 3082.594       13848637       14480148       14920538       15034259       14839484
 3092.2388       14438335       13934540       12980220       11803620
 3099.9546       10897222       10074557        9329963        8674209
 3107.6704        8201232        8095214        7855686        7450046
 3115.3862        7345080        7348652        7121040        6905895
 3123.1021        7017418        7104506        6956241        6522211
 3130.8179        5923275        5505708        5140312        4799727
 3138.5337        4562046        4231119        3869858        3547814
 3146.2495        3319342        3143126        2874938        2710406
 3153.9653        2693630        2581404        2570656        2530849
 3161.6812        2420417        2336382        2059782        1943622
 3169.397        2032658        1960706        1926050        1969569        1891917
 3179.0417        1736814        1683216        1790465        1954922
 3186.7576        1924413        1510541        1355128        1578172
 3194.4734        1577788        1444044        1511941        1574165
 3202.1892        1607564        1636227        1460461        1307633
 3209.905        1469486        1718239        1727441        1547590        1523436
 3219.5498        1564953        1615332        1716458        1593239
 3227.2656        1635514        1797800        1662437        1506422
 3234.9814        1314056        1223475        1368894        1344402
 3242.6973        1293514        1453965        1434348        1220057
 3250.4131        1332500        1512256        1452670        1245802
 3258.1289        1153830        1304586        1416389        1320412
 3265.8447        1269275        1333565        1239077        1193155
 3273.5605        1320268        1318424        1293230        1284309
 3281.2764        1235292        1179479        1080364        1052710
 3288.9922        1038495        1028969        1117105        1128180
 3296.708         981440        1073633        1183813         928001         715458
 3306.3528         828126        1028453        1166511        1141519
 3314.0686         979547         896322        1005036        1082097
 3321.7844        1031300         888243         897422         994399
 3329.5002         925388        1008929        1020644         871886
 3337.2161         884434         909556         941863         984361
 3344.9319         967060        1009854        1052758        1047124
 3352.6477         978202         907494         804803         803553
 3360.3635         953358        1079005         902132         814328
 3368.0793         983431        1053513        1075425        1047969
 3375.7952        1001886         798260         704605         857285
 3383.511         872047         819921         772115         646781         647794
 3393.1558         894316        1087614        1099731        1016278
 3400.8716         939263         949016         963252        1065846
 3408.5874        1082890        1074714        1134631        1175546
 3416.3032        1131777        1122727        1230740        1325942
 3424.019        1273180        1088048         955338        1102823        1311085
 3433.6638        1237025        1152451        1152177        1206147
 3441.3796        1269390        1363115        1396839        1407803
 3449.0955        1605234        1833324        1744325        1557757
 3456.8113        1701424        1870172        1777592        1581532
 3464.5271        1471997        1441360        1259731        1062613
 3472.2429         956059         937383        1000319        1032130
 3479.9587         965743         944463        1061351        1154797
 3487.6746        1111900         998180        1021569        1039152
 3495.3904         997582        1006961         937436         973172
 3503.1062        1029307         964941        1061809        1073476
 3510.822         934162         876544         936298         798820         614181
 3520.4668         576084         682737         964711        1123653
 3528.1826        1041893         938959         918156        1037498
 3535.8984        1187840        1086426        1037238        1023965
 3543.6143         924003        1003489         995172         926977
 3551.3301        1052865        1097331        1008738         903334
 3559.0459         926442        1133942        1328880        1301039
 3566.7617        1207123        1241526        1435088        1572581
 3574.4775        1584060        1493625        1471522        1366362
 3582.1934        1251679        1494283        1689834        1724626
 3589.9092        1577492        1369826        1421344        1399099
 3597.625        1384117        1512407        1427712        1372851        1353575
 3607.2698        1147723         896023         888554        1165636
 3614.9856        1290611        1012508         827344         872209
 3622.7014         981458         943759         753554         675916
 3630.4172         855320        1038706        1197430        1305906
 3638.1331        1275779        1302850        1338566        1161269
 3645.8489         929375         687473         614019         896534
 3653.5647         950729         926564         928749         947852
 3661.2805        1026230        1099715        1022939         874608
 3668.9963         786836         875449         793029         523513
 3676.7122         673061         791623         851666         959706
 3684.428         921832         869403         778184         818462         914505
 3694.0728        1083999        1193735        1003307         876296
 3701.7886        1024089        1065861        1035655        1131131
 3709.5044         951152         933878        1247284        1149019
 3717.2202         778596         746722         894483         873832
 3724.936         747846         780462         977398         878047         696496
 3734.5808         721400         721249         739871         767457
 3742.2966         720967         890107         977539         651027
 3750.0125         668571         918397        1145295        1146562
 3757.7283         931874        1056704        1064548         910460
 3765.4441         955230         907466         964524        1124182
 3773.1599        1109453        1166894        1162135        1192271
 3780.8757        1256732        1166326        1050705        1040536
 3788.5916        1049652        1079442        1192896        1275315
 3796.3074        1138624         914097         679339         823695
 3804.0232        1253415        1191574        1086358        1091477
 3811.739        1098045        1031546         928287         975483         928202
 3821.3838         999106        1213233        1105599        1055975
 3829.0996        1047791         814033         711677         849820
 3836.8154         850425         961296        1274832        1244251
 3844.5313        1118253        1220816        1343317        1170532
 3852.2471         947117        1217320        1232803        1100154
 3859.9629         991332         886154        1010492        1093216
 3867.6787         976978         942654        1200699        1104149
 3875.3945         992016        1139082        1166971        1221639
 3883.1104        1336758        1340115        1434069        1239210
 3890.8262         911046         858897         945134         979632
 3898.542         957466         978955        1109298        1256025        1213705
 3908.1868        1165510        1129875        1159843        1158181
 3915.9026        1127922        1235841        1283600        1245754
 3923.6184        1248072        1329870        1342121        1099676
 3931.3342        1011459        1167806        1216173        1160079
 3939.05        1081993        1078442        1297465        1385310        1405073
 3948.6948        1460856        1347455        1207720        1182664
 3956.4106        1253847        1152387        1077090        1240510
 3964.1265        1206550        1026212         807991         598113
 3971.8423         669402         783028         929868        1035708
 3979.5581         941260         838954         686989         638288
 3987.2739         580933         389048         552744         758315
 3994.9897         880259         833061         788516         938932
##END=$$ End of the data block
